time (s)	coil I (A)	last det (V)	int current (uC)
5797.726249	0.732737	-245.703125	269.140625
5797.728251	0.780705	-245.703125	269.140625
5797.730252	0.780515	8.585668	0.216700
5798.866804	0.742306	-263.867187	-82.519531
5798.868806	0.782304	-263.867187	-82.519531
5798.870807	0.779960	8.579561	0.161444
5799.865363	0.382217	-248.144531	269.433594
5799.867365	0.673550	-248.144531	269.433594
5799.869368	0.782757	-248.144531	269.433594
5799.871370	0.780161	8.581769	0.172371
5800.931497	0.554182	-287.304687	-64.160156
5800.933496	0.770204	-287.304687	-64.160156
5800.935497	0.780842	-287.304687	-64.160156
5800.937500	0.778568	8.564248	0.350731
5801.938054	0.550671	-219.433594	276.171875
5801.940057	0.768890	-219.433594	276.171875
5801.942060	0.780274	-219.433594	276.171875
5801.944060	0.778122	8.559339	0.180215
5803.066092	0.414625	-292.773437	-55.078125
5803.068092	0.698814	-292.773437	-55.078125
5803.070093	0.782039	-292.773437	-55.078125
5803.072093	0.779405	8.573456	0.138577
5804.000124	0.586837	-228.906250	280.078125
5804.002127	0.776492	-228.906250	280.078125
5804.008124	0.776288	-228.906250	280.078125
5804.010126	0.775265	8.527912	0.239264
5805.158195	0.776721	-278.027344	-66.503906
5805.160196	0.780730	-278.027344	-66.503906
5805.162199	0.778649	8.565143	0.461429
5806.098218	0.266709	-236.621094	286.035156
5806.100220	0.566658	-236.621094	286.035156
5806.102221	0.772795	-236.621094	286.035156
5806.104221	0.779881	-236.621094	286.035156
5806.106220	0.777744	8.555182	0.225952
5807.234335	0.573551	-269.042969	-75.000000
5807.236334	0.774445	-269.042969	-75.000000
5807.238334	0.780177	-269.042969	-75.000000
5807.240334	0.778139	8.559533	0.187292
5808.218378	0.494867	-218.164062	305.664062
5808.220379	0.747523	-218.164062	305.664062
5808.222379	0.780737	-218.164062	305.664062
5808.224379	0.778367	8.562033	0.155851
5809.334935	0.402348	-265.429687	-75.488281
5809.336937	0.689650	-265.429687	-75.488281
5809.338937	0.782420	-265.429687	-75.488281
5809.340937	0.779653	8.576185	0.187505
5810.294913	0.770622	-219.042969	304.199219
5810.296915	0.780533	-219.042969	304.199219
5810.300913	0.777081	8.547896	0.189935
5811.427042	0.639613	-273.339844	-67.773437
5811.429043	0.783115	-273.339844	-67.773437
5811.431043	0.781513	8.596648	0.189145
5812.381102	0.592729	-207.421875	306.738281
5812.383098	0.778881	-207.421875	306.738281
5812.385101	0.781360	-207.421875	306.738281
5812.387098	0.779359	8.572950	0.183384
5813.515094	0.504233	-289.941406	-60.742187
5813.517098	0.752076	-289.941406	-60.742187
5813.519098	0.781028	-289.941406	-60.742187
5813.521097	0.778668	8.565347	0.195017
5814.491142	0.378757	-201.464844	293.066406
5814.493144	0.670689	-201.464844	293.066406
5814.495146	0.782844	-201.464844	293.066406
5814.497146	0.780309	8.583399	0.161028
5815.593155	0.482650	-292.773437	-52.539062
5815.595157	0.741730	-292.773437	-52.539062
5815.597156	0.781296	-292.773437	-52.539062
5815.599156	0.778906	8.567961	0.184909
5816.587207	0.595389	-225.878906	282.714844
5816.589207	0.778118	-225.878906	282.714844
5816.591206	0.779923	-225.878906	282.714844
5816.593207	0.777874	8.556617	0.199665
5817.669228	0.620970	-268.847656	-70.898437
5817.671229	0.780731	-268.847656	-70.898437
5817.673228	0.779975	8.579730	0.192012
5818.675802	0.619142	-212.695312	311.718750
5818.677805	0.781268	-212.695312	311.718750
5818.679806	0.780766	8.588424	0.655438
5819.805820	0.739609	-279.882812	-62.402344
5819.807822	0.781296	-279.882812	-62.402344
5819.809822	0.778699	8.565692	0.150894
5820.734795	0.351431	-225.292969	276.953125
5820.736796	0.646891	-225.292969	276.953125
5820.738799	0.781901	-225.292969	276.953125
5820.740798	0.779888	8.578773	0.206437
5821.865338	0.658425	-288.769531	-55.273437
5821.867340	0.782192	-288.769531	-55.273437
5821.869341	0.779812	8.577931	0.204507
5822.889392	0.518988	-211.816406	306.933594
5822.891392	0.758422	-211.816406	306.933594
5822.893392	0.781170	-211.816406	306.933594
5822.895394	0.778913	8.568041	0.167379
5823.959943	0.435746	-267.285156	-72.656250
5823.961944	0.713633	-267.285156	-72.656250
5823.963944	0.781546	-267.285156	-72.656250
5823.965943	0.778856	8.567411	0.157789
5824.925978	0.496130	-203.710937	302.929687
5824.927978	0.748287	-203.710937	302.929687
5824.929980	0.781032	-203.710937	302.929687
5824.931982	0.778682	8.565497	0.210389
5826.060027	0.774229	-286.132812	-48.828125
5826.062028	0.780139	-286.132812	-48.828125
5826.064029	0.777919	8.557114	0.438888
5827.078061	0.761174	-203.222656	316.503906
5827.080064	0.780970	-203.222656	316.503906
5827.082063	0.778687	8.565559	0.181694
5828.140146	0.622965	-267.285156	-73.437500
5828.142148	0.781031	-267.285156	-73.437500
5828.144146	0.780160	8.581759	0.188374
5829.118691	0.703464	-198.242187	306.152344
5829.120693	0.782296	-198.242187	306.152344
5829.122693	0.779560	8.575157	0.191742
5830.239284	0.735242	-281.347656	-49.804687
5830.241286	0.781919	-281.347656	-49.804687
5830.243286	0.779453	8.573978	0.184881
5831.253327	0.504530	-195.703125	324.902344
5831.255330	0.752004	-195.703125	324.902344
5831.257329	0.780645	-195.703125	324.902344
5831.259329	0.778284	8.561128	0.181327
5832.341360	0.717323	-266.503906	-63.574219
5832.343361	0.719970	-266.503906	-63.574219
5832.345364	0.779130	8.570425	0.172085
5833.301366	0.584322	-194.140625	305.566406
5833.303367	0.776785	-194.140625	305.566406
5833.305368	0.780481	-194.140625	305.566406
5833.307367	0.778398	8.562378	0.477006
5834.409953	0.374202	-280.468750	-50.488281
5834.411954	0.667091	-280.468750	-50.488281
5834.415953	0.783424	-280.468750	-50.488281
5834.417956	0.779296	8.572259	0.189282
5835.429986	0.543899	-203.320312	316.699219
5835.431989	0.766977	-203.320312	316.699219
5835.437987	0.776901	-203.320312	316.699219
5835.439989	0.775952	8.535472	0.280719
5836.524035	0.531776	-266.015625	-66.894531
5836.526038	0.763140	-266.015625	-66.894531
5836.528038	0.780834	-266.015625	-66.894531
5836.530040	0.778567	8.564239	0.155517
5837.474071	0.420470	-200.683594	304.882812
5837.476076	0.702982	-200.683594	304.882812
5837.478073	0.781784	-200.683594	304.882812
5837.480073	0.779029	8.569317	0.211939
5838.604102	0.426929	-284.375000	-44.921875
5838.606104	0.707690	-284.375000	-44.921875
5838.608104	0.781781	-284.375000	-44.921875
5838.610104	0.779134	8.570477	0.197488
5839.620154	0.387220	-188.183594	329.199219
5839.622156	0.677963	-188.183594	329.199219
5839.624156	0.783934	-188.183594	329.199219
5839.626155	0.781407	8.595478	0.160608
5840.678145	0.706511	-261.816406	-70.214844
5840.680148	0.782241	-261.816406	-70.214844
5840.684151	0.777911	8.557015	0.175404
5841.672738	0.460431	-183.203125	341.210937
5841.674739	0.729250	-183.203125	341.210937
5841.680738	0.777177	-183.203125	341.210937
5841.682739	0.776129	8.537422	0.202683
5842.814802	0.352793	-284.375000	-48.437500
5842.816805	0.648125	-284.375000	-48.437500
5842.818805	0.781813	-284.375000	-48.437500
5842.820804	0.779809	8.577896	0.182579
5843.761378	0.639707	-181.835937	312.890625
5843.763381	0.781960	-181.835937	312.890625
5843.765381	0.780253	8.582788	0.168577
5844.863410	0.519109	-280.566406	-51.562500
5844.865412	0.758198	-280.566406	-51.562500
5844.867414	0.760918	-280.566406	-51.562500
5844.869410	0.778428	8.562706	0.215182
5845.897958	0.563394	-190.039062	327.734375
5845.899961	0.772903	-190.039062	327.734375
5845.901961	0.781136	-190.039062	327.734375
5845.903960	0.779033	8.569361	0.356030
5846.949988	0.689437	-262.304687	-68.066406
5846.951989	0.782887	-262.304687	-68.066406
5846.953991	0.780203	8.582238	0.202781
5847.960969	0.438169	-190.527344	338.574219
5847.962971	0.715452	-190.527344	338.574219
5847.964971	0.782085	-190.527344	338.574219
5847.966971	0.779442	8.573863	0.213891
5849.071033	0.289738	-262.890625	-60.839844
5849.073038	0.588973	-262.890625	-60.839844
5849.075042	0.779696	-262.890625	-60.839844
5849.077042	0.782699	-262.890625	-60.839844
5849.079041	0.780767	8.588432	0.135219
5850.035150	0.524143	-188.671875	333.007812
5850.037152	0.760571	-188.671875	333.007812
5850.039153	0.781323	-188.671875	333.007812
5850.041151	0.779118	8.570301	0.213749
5851.172136	0.424491	-274.511719	-50.781250
5851.174140	0.705962	-274.511719	-50.781250
5851.176138	0.781895	-274.511719	-50.781250
5851.178138	0.779227	8.571497	0.174687
5852.111663	1.850232	-174.121094	333.691406
5852.118902	0.782223	-174.121094	333.691406
5852.120904	0.779819	-174.121094	333.691406
5852.122904	0.778001	8.558008	0.200606
5853.258937	0.330801	-281.445312	-46.777344
5853.260941	0.628127	-281.445312	-46.777344
5853.262938	0.781700	-281.445312	-46.777344
5853.264939	0.780551	8.586066	0.187414
5854.210988	0.593343	-181.445312	323.144531
5854.212984	0.779325	-181.445312	323.144531
5854.214985	0.781828	-181.445312	323.144531
5854.216985	0.779860	8.578463	0.507859
5855.347962	0.339355	-284.375000	-47.949219
5855.349963	0.636081	-284.375000	-47.949219
5855.351963	0.782197	-284.375000	-47.949219
5855.355963	0.778672	8.565392	0.164102
5856.298916	0.517339	-183.691406	323.828125
5856.300916	0.757771	-183.691406	323.828125
5856.302917	0.781211	-183.691406	323.828125
5856.306914	0.777416	8.551575	0.200686
5857.437871	0.553261	-280.175781	-48.437500
5857.439873	0.769823	-280.175781	-48.437500
5857.441874	0.780525	-280.175781	-48.437500
5857.443872	0.778346	8.561802	0.331129
5858.389884	0.280299	-186.523437	328.906250
5858.391884	0.579879	-186.523437	328.906250
5858.393885	0.775917	-186.523437	328.906250
5858.395885	0.780370	-186.523437	328.906250
5858.397884	0.778307	8.561376	0.191319
5859.517922	0.452208	-271.191406	-56.835937
5859.519925	0.724488	-271.191406	-56.835937
5859.521924	0.781837	-271.191406	-56.835937
5859.523924	0.779273	8.572002	0.188120
5860.511979	0.774312	-162.109375	372.656250
5860.513980	0.780493	-162.109375	372.656250
5860.515979	0.778328	8.561606	0.388833
5861.592042	1.531321	-259.570312	-64.843750
5861.596054	0.779237	-259.570312	-64.843750
5861.598056	0.780873	-259.570312	-64.843750
5861.600057	0.778867	8.567535	0.197070
5862.602086	0.508021	-191.992187	335.156250
5862.604086	0.753917	-191.992187	335.156250
5862.606086	0.781247	-191.992187	335.156250
5862.608087	0.779040	8.569441	0.187857
5863.678623	0.478859	-264.062500	-53.417969
5863.680623	0.739989	-264.062500	-53.417969
5863.682624	0.781792	-264.062500	-53.417969
5863.684625	0.779355	8.572906	0.180818
5864.690667	0.298458	-193.164062	317.382812
5864.692679	0.597189	-193.164062	317.382812
5864.694683	0.779044	-193.164062	317.382812
5864.696682	0.780510	-193.164062	317.382812
5864.698682	0.778475	8.563229	0.186460
5865.790690	0.487568	-286.914062	-43.945312
5865.792692	0.744360	-286.914062	-43.945312
5865.794692	0.781652	-286.914062	-43.945312
5865.796693	0.779254	8.571798	0.158848
5866.761661	0.367619	-153.515625	348.242187
5866.763664	0.661385	-153.515625	348.242187
5866.765663	0.782975	-153.515625	348.242187
5866.767664	0.780706	8.587768	0.174664
5867.893712	0.763083	-274.804687	-54.003906
5867.895715	0.781310	-274.804687	-54.003906
5867.899726	0.777681	8.554490	0.197333
5868.864322	0.426767	-170.410156	366.015625
5868.866322	0.707835	-170.410156	366.015625
5868.868324	0.782511	-170.410156	366.015625
5868.870328	0.779913	8.579039	0.160652
5869.950361	0.363384	-260.937500	-58.593750
5869.952363	0.657731	-260.937500	-58.593750
5869.954364	0.783122	-260.937500	-58.593750
5869.956365	0.780865	8.589514	0.205222
5870.978948	2.583276	-169.824219	346.289062
5870.980950	0.755495	-169.824219	346.289062
5870.982950	0.781273	-169.824219	346.289062
5870.984951	0.779042	8.569468	0.179872
5872.050993	0.500052	-284.667969	-42.382812
5872.052996	0.750718	-284.667969	-42.382812
5872.058995	0.778175	-284.667969	-42.382812
5872.060998	0.777061	8.547675	0.195910
5873.041033	0.742062	-152.832031	355.371094
5873.043037	0.781483	-152.832031	355.371094
5873.045037	0.779088	8.569973	0.177854
5874.159125	0.382665	-266.796875	-56.250000
5874.161127	0.674196	-266.796875	-56.250000
5874.163127	0.783254	-266.796875	-56.250000
5874.165126	0.780783	8.588611	0.172610
5875.144069	0.512775	-171.777344	366.503906
5875.146069	0.756088	-171.777344	366.503906
5875.148069	0.781422	-171.777344	366.503906
5875.150070	0.779116	8.570273	0.169264
5876.212120	0.720676	-269.335937	-52.929687
5876.214121	0.781694	-269.335937	-52.929687
5876.216120	0.779050	8.569548	0.192141
5877.240682	0.508446	-162.695312	347.070312
5877.242683	0.754172	-162.695312	347.070312
5877.244683	0.781398	-162.695312	347.070312
5877.246685	0.779171	8.570876	0.172879
5878.336754	0.491773	-281.640625	-40.625000
5878.338755	0.746478	-281.640625	-40.625000
5878.340757	0.781505	-281.640625	-40.625000
5878.344754	0.777555	8.553107	0.168974
5879.300772	0.327195	-170.507812	353.613281
5879.302775	0.355055	-170.507812	353.613281
5879.304774	0.782459	-170.507812	353.613281
5879.308772	0.779851	8.578365	0.192157
5880.427394	0.661628	-258.789062	-58.789062
5880.429395	0.783296	-258.789062	-58.789062
5880.431393	0.780988	8.590870	0.161482
5881.433417	0.755503	-177.734375	354.980469
5881.435419	0.781277	-177.734375	354.980469
5881.437420	0.778958	8.568537	0.156880
5882.493414	0.375949	-269.238281	-45.214844
5882.495416	0.668812	-269.238281	-45.214844
5882.497416	0.783836	-269.238281	-45.214844
5882.499416	0.781425	8.595673	0.211823
5883.507489	0.266910	-155.273437	354.589844
5883.509490	0.567196	-155.273437	354.589844
5883.511489	0.774190	-155.273437	354.589844
5883.513490	0.781650	-155.273437	354.589844
5883.517488	0.778121	8.559329	0.163415
5884.603521	0.321318	-281.933594	-40.917969
5884.605521	0.619348	-281.933594	-40.917969
5884.607523	0.782204	-281.933594	-40.917969
5884.609524	0.781850	8.600352	0.169442
5885.575534	0.659200	-170.410156	351.171875
5885.577536	0.782094	-170.410156	351.171875
5885.579537	0.779756	8.577319	0.212226
5886.702082	0.529320	-260.546875	-52.246094
5886.704083	0.762508	-260.546875	-52.246094
5886.706083	0.781332	-260.546875	-52.246094
5886.708083	0.781248	8.593723	0.166642
5887.680159	0.694403	-156.445312	388.671875
5887.682160	0.782734	-156.445312	388.671875
5887.684160	0.780075	8.580820	0.173726
5888.784183	0.499828	-259.179687	-54.492187
5888.786184	0.750349	-259.179687	-54.492187
5888.788183	0.781371	-259.179687	-54.492187
5888.790184	0.779072	8.569796	0.169293
5889.782200	0.367579	-168.359375	362.207031
5889.784203	0.661345	-168.359375	362.207031
5889.786202	0.783072	-168.359375	362.207031
5889.788202	0.780740	8.588140	0.155621
5890.864248	0.547182	-272.558594	-42.675781
5890.866248	0.768313	-272.558594	-42.675781
5890.868249	0.781178	-272.558594	-42.675781
5890.870248	0.778931	8.568245	0.313731
5891.870261	0.681423	-158.300781	355.175781
5891.872262	0.782924	-158.300781	355.175781
5891.874263	0.780240	8.582637	0.155094
5892.970849	0.582547	-284.277344	-38.085937
5892.972851	0.776833	-284.277344	-38.085937
5892.974850	0.780883	-284.277344	-38.085937
5892.976851	0.778804	8.566844	0.176133
5893.943387	0.313878	-139.062500	367.968750
5893.945389	0.612142	-139.062500	367.968750
5893.947388	0.781049	-139.062500	367.968750
5893.949392	0.781172	8.592891	0.162680
5895.071436	0.408450	-283.398437	-35.937500
5895.073436	0.694578	-283.398437	-35.937500
5895.075438	0.782729	-283.398437	-35.937500
5895.077436	0.780103	8.581130	0.164520
5896.025497	0.759123	-150.097656	359.667969
5896.027498	0.781277	-150.097656	359.667969
5896.029497	0.778970	8.568670	0.162899
5897.164507	0.412112	-285.546875	-38.867187
5897.166509	0.697556	-285.546875	-38.867187
5897.168515	0.783422	-285.546875	-38.867187
5897.172514	0.779218	8.571400	0.183953
5898.121095	0.512794	-130.078125	384.277344
5898.123096	0.756334	-130.078125	384.277344
5898.127093	0.779583	-130.078125	384.277344
5898.129096	0.778038	8.558416	0.141672
5899.259124	0.416500	-284.472656	-39.843750
5899.261126	0.442517	-284.472656	-39.843750
5899.263127	0.782484	-284.472656	-39.843750
5899.265126	0.779754	8.577293	0.157930
5900.207679	0.615167	-145.117187	367.089844
5900.209681	0.781502	-145.117187	367.089844
5900.211683	0.781388	8.595266	0.604912
5901.347687	0.356213	-284.179687	-37.402344
5901.349689	0.651558	-284.179687	-37.402344
5901.351689	0.783334	-284.179687	-37.402344
5901.355687	0.779478	8.574253	0.182301
5902.305727	0.519877	-141.308594	366.503906
5902.309729	0.781392	-141.308594	366.503906
5902.311729	0.779082	-141.308594	366.503906
5902.315728	0.776655	8.543208	0.136675
5903.430710	0.387897	-287.304687	-37.207031
5903.432711	0.678771	-287.304687	-37.207031
5903.434711	0.784341	-287.304687	-37.207031
5903.436711	0.781838	8.600220	0.179054
5904.399282	0.782294	-148.632812	362.304687
5904.401288	0.779569	-148.632812	362.304687
5904.403291	0.778014	8.558150	0.153369
5905.513856	0.436520	-278.515625	-36.230469
5905.515858	0.714655	-278.515625	-36.230469
5905.517857	0.782403	-278.515625	-36.230469
5905.519858	0.779834	8.578179	0.180513
5906.503892	0.254592	-141.210937	381.835937
5906.505894	0.555655	-141.210937	381.835937
5906.507893	0.771186	-141.210937	381.835937
5906.509894	0.781484	-141.210937	381.835937
5906.511893	0.779353	8.572888	0.143392
5907.597928	0.781741	-261.523437	-42.578125
5907.599930	0.779693	8.576629	0.341352
5908.597975	0.703312	-142.871094	402.246094
5908.601975	0.780473	-142.871094	402.246094
5908.603977	0.778769	8.566463	0.149422
5909.692000	0.544079	-257.421875	-53.417969
5909.694002	0.767650	-257.421875	-53.417969
5909.696001	0.781395	-257.421875	-53.417969
5909.698004	0.779151	8.570663	0.168053
5910.664039	0.431865	-140.429687	409.082031
5910.666040	0.711329	-140.429687	409.082031
5910.668040	0.782211	-140.429687	409.082031
5910.670041	0.779614	8.575751	0.168310
5911.812124	0.611721	-274.023437	-43.164062
5911.814126	0.780758	-274.023437	-43.164062
5911.816126	0.780948	8.590427	0.154762
5912.743096	0.482457	-128.417969	390.625000
5912.745098	0.741892	-128.417969	390.625000
5912.747097	0.744976	-128.417969	390.625000
5912.749098	0.779403	8.573429	0.156727
5913.885124	0.670317	-281.542969	-32.812500
5913.887126	0.783071	-281.542969	-32.812500
5913.889127	0.780671	8.587379	0.185881
5914.859133	0.624961	-143.457031	372.363281
5914.863135	0.781015	-143.457031	372.363281
5914.865135	0.779121	8.570327	0.131369
5915.951193	0.687824	-263.867187	-40.625000
5915.953195	0.783526	-263.867187	-40.625000
5915.955195	0.780907	8.589974	0.190840
5916.961703	0.287335	-153.320312	388.671875
5916.963706	0.586837	-153.320312	388.671875
5916.965704	0.778087	-153.320312	388.671875
5916.967705	0.781524	-153.320312	388.671875
5916.969704	0.779477	8.574244	0.156922
5918.055748	0.654209	-256.445312	-52.441406
5918.059750	0.781079	-256.445312	-52.441406
5918.061753	0.779254	8.571790	0.149510
5919.023812	0.560633	-145.312500	398.632812
5919.025812	0.771871	-145.312500	398.632812
5919.027813	0.780646	-145.312500	398.632812
5919.029813	0.778528	8.563805	0.169338
5920.170386	0.591601	-274.414062	-36.132812
5920.172387	0.779084	-274.414062	-36.132812
5920.174388	0.781721	-274.414062	-36.132812
5920.176389	0.779764	8.577408	0.490986
5921.110437	0.593799	-140.820312	370.800781
5921.112437	0.779621	-140.820312	370.800781
5921.114437	0.782104	-140.820312	370.800781
5921.116436	0.780195	8.582150	0.152305
5922.232960	0.474805	-284.375000	-36.132812
5922.234961	0.738084	-284.375000	-36.132812
5922.236963	0.782322	-284.375000	-36.132812
5922.238965	0.779947	8.579420	0.193085
5923.232990	0.336928	-146.386719	379.101562
5923.234991	0.634079	-146.386719	379.101562
5923.236992	0.783553	-146.386719	379.101562
5923.240990	0.780450	8.584949	0.122975
5924.305940	0.383528	-264.746094	-47.949219
5924.311941	0.781036	-264.746094	-47.949219
5924.313943	0.779270	-264.746094	-47.949219
5924.315942	0.778023	8.558257	0.192697
5925.314884	0.270845	-143.066406	408.007812
5925.316885	0.571144	-143.066406	408.007812
5925.318885	0.774904	-143.066406	408.007812
5925.320885	0.781269	-143.066406	408.007812
5925.322885	0.779195	8.571142	0.162822
5926.424953	0.434888	-256.250000	-50.976562
5926.428954	0.782446	-256.250000	-50.976562
5926.430954	0.779869	-256.250000	-50.976562
5926.432954	0.778200	8.560198	0.127977
5927.383890	0.754852	-142.773437	400.488281
5927.385893	0.757451	-142.773437	400.488281
5927.387893	0.779296	8.572250	0.167659
5928.532457	0.601535	-276.074219	-38.574219
5928.534454	0.780096	-276.074219	-38.574219
5928.536453	0.781442	8.595860	0.531426
5929.464434	0.546875	-127.050781	390.429687
5929.468433	0.781717	-127.050781	390.429687
5929.470435	0.779639	-127.050781	390.429687
5929.472437	0.778151	8.559657	0.267903
5930.610462	0.782396	-284.667969	-33.398437
5930.612464	0.782324	8.605563	0.189288
5931.579045	0.245137	-124.023437	391.406250
5931.581046	0.547088	-124.023437	391.406250
5931.583048	0.768713	-124.023437	391.406250
5931.587044	0.779296	-124.023437	391.406250
5931.589047	0.777844	8.556290	0.117795
5932.677107	0.375489	-280.078125	-37.402344
5932.679108	0.668417	-280.078125	-37.402344
5932.681109	0.784034	-280.078125	-37.402344
5932.683110	0.781642	8.598066	0.203767
5933.681100	0.725931	-148.339844	377.636719
5933.683103	0.782485	-148.339844	377.636719
5933.685104	0.779943	8.579375	0.139741
5934.762021	0.536654	-262.304687	-39.160156
5934.764024	0.764954	-262.304687	-39.160156
5934.766023	0.781129	-262.304687	-39.160156
5934.768023	0.778932	8.568254	0.178087
5935.772052	0.514908	-135.937500	407.324219
5935.774055	0.757352	-135.937500	407.324219
5935.776053	0.781903	-135.937500	407.324219
5935.778053	0.779691	8.576601	0.140966
5936.852119	0.324479	-255.957031	-44.335937
5936.854124	0.622355	-255.957031	-44.335937
5936.856128	0.782467	-255.957031	-44.335937
5936.858126	0.781820	8.600016	0.160156
5937.858148	0.545106	-148.828125	396.289062
5937.860150	0.768417	-148.828125	396.289062
5937.862155	0.781879	-148.828125	396.289062
5937.866161	0.779666	8.576326	0.227594
5938.948201	0.546654	-258.593750	-49.511719
5938.950203	0.768212	-258.593750	-49.511719
5938.952202	0.781157	-258.593750	-49.511719
5938.954202	0.778966	8.568625	0.170643
5939.943219	0.267871	-145.898437	405.175781
5939.945221	0.568230	-145.898437	405.175781
5939.947221	0.774317	-145.898437	405.175781
5939.949221	0.781510	-145.898437	405.175781
5939.951221	0.779460	8.574059	0.148485
5941.045319	0.465800	-252.148437	-47.851562
5941.047321	0.732963	-252.148437	-47.851562
5941.051319	0.779863	-252.148437	-47.851562
5941.053321	0.778283	8.561110	0.147756
5942.031356	0.606120	-146.386719	402.832031
5942.033358	0.781152	-146.386719	402.832031
5942.035355	0.781888	8.600769	0.544257
5943.131911	0.493290	-250.878906	-45.312500
5943.133915	0.502825	-250.878906	-45.312500
5943.135913	0.781809	-250.878906	-45.312500
5943.137915	0.779482	8.574298	0.173269
5944.125950	0.730318	-147.656250	397.656250
5944.127952	0.782111	-147.656250	397.656250
5944.129954	0.779616	8.575777	0.142712
5945.218535	0.375783	-256.445312	-44.824219
5945.220535	0.668642	-256.445312	-44.824219
5945.222537	0.782915	-256.445312	-44.824219
5945.224535	0.780497	8.585464	0.156624
5946.217111	0.402968	-151.464844	386.523437
5946.219112	0.690889	-151.464844	386.523437
5946.221112	0.784403	-151.464844	386.523437
5946.223114	0.781795	8.599750	0.146738
5947.309126	0.542318	-259.277344	-37.304687
5947.311129	0.767286	-259.277344	-37.304687
5947.313130	0.781609	-259.277344	-37.304687
5947.315129	0.779484	8.574325	0.154012
5948.305201	0.576616	-134.179687	395.312500
5948.307203	0.776134	-134.179687	395.312500
5948.309203	0.781594	-134.179687	395.312500
5948.311203	0.779515	8.574660	0.387822
5949.399247	0.410917	-273.339844	-33.789062
5949.401249	0.696752	-273.339844	-33.789062
5949.403249	0.783582	-273.339844	-33.789062
5949.405248	0.780875	8.589621	0.160090
5950.391290	0.378731	-117.773437	401.367187
5950.393293	0.671154	-117.773437	401.367187
5950.395293	0.783480	-117.773437	401.367187
5950.397292	0.781041	8.591446	0.127074
5951.501341	0.459623	-278.417969	-31.738281
5951.503343	0.729558	-278.417969	-31.738281
5951.505343	0.782906	-278.417969	-31.738281
5951.507343	0.780443	8.584870	0.163170
5952.469337	0.430246	-125.488281	393.359375
5952.471340	0.710327	-125.488281	393.359375
5952.473340	0.782588	-125.488281	393.359375
5952.475339	0.779963	8.579588	0.129277
5953.607381	0.703304	-277.246094	-36.718750
5953.609382	0.783507	-277.246094	-36.718750
5953.611384	0.780845	8.589293	0.153258
5954.551907	0.317569	-123.046875	421.777344
5954.553909	0.615852	-123.046875	421.777344
5954.555909	0.781426	-123.046875	421.777344
5954.557908	0.781269	8.593954	0.138687
5955.691940	0.667340	-260.839844	-45.410156
5955.693942	0.783777	-260.839844	-45.410156
5955.695942	0.781401	8.595407	0.150454
5956.656503	0.585911	-140.234375	416.796875
5956.658505	0.777565	-140.234375	416.796875
5956.662504	0.779057	-140.234375	416.796875
5956.664504	0.777593	8.553524	0.140720
5957.763092	0.783213	-255.957031	-47.656250
5957.767092	0.778901	8.567907	0.164776
5958.763629	0.394716	-144.433594	399.707031
5958.765631	0.684231	-144.433594	399.707031
5958.767633	0.783773	-144.433594	399.707031
5958.769633	0.781194	8.593130	0.136768
5959.843639	0.650805	-267.675781	-37.500000
5959.845641	0.783076	-267.675781	-37.500000
5959.847640	0.783137	8.614506	0.160736
5960.848157	0.496139	-135.156250	391.894531
5960.850159	0.749026	-135.156250	391.894531
5960.852158	0.782138	-135.156250	391.894531
5960.854157	0.779819	8.578012	0.125464
5961.946199	0.391467	-274.121094	-29.394531
5961.948205	0.681824	-274.121094	-29.394531
5961.950207	0.784552	-274.121094	-29.394531
5961.952207	0.782032	8.602346	0.160749
5962.916671	0.500976	-115.625000	407.714844
5962.918671	0.751170	-115.625000	407.714844
5962.920670	0.781945	-115.625000	407.714844
5962.922669	0.779681	8.576487	0.135677
5964.060727	0.781970	-271.093750	-31.738281
5964.062731	0.779827	8.578099	0.294055
5965.004773	0.600869	-127.441406	419.238281
5965.006768	0.779606	-127.441406	419.238281
5965.008769	0.780871	8.589576	0.135924
5966.135331	0.458899	-256.835937	-41.796875
5966.137332	0.729045	-256.835937	-41.796875
5966.139331	0.782629	-256.835937	-41.796875
5966.141332	0.780102	8.581121	0.154428
5967.107369	0.423512	-129.199219	435.253906
5967.109373	0.705902	-129.199219	435.253906
5967.111376	0.783236	-129.199219	435.253906
5967.113374	0.780614	8.586758	0.131017
5968.207433	0.685374	-256.250000	-45.800781
5968.209434	0.782945	-256.250000	-45.800781
5968.211435	0.780324	8.583568	0.160555
5969.210372	0.532014	-142.871094	408.691406
5969.212372	0.764100	-142.871094	408.691406
5969.214374	0.782032	-142.871094	408.691406
5969.216376	0.779876	8.578640	0.141467
5970.292967	0.748728	-263.671875	-37.695312
5970.294971	0.782436	-263.671875	-37.695312
5970.296970	0.780168	8.581848	0.148934
5971.297929	0.322139	-128.808594	408.886719
5971.299931	0.620269	-128.808594	408.886719
5971.301931	0.781651	-128.808594	408.886719
5971.303931	0.781172	8.592891	0.129776
5972.393977	0.782608	-273.828125	-30.957031
5972.395977	0.780179	-273.828125	-30.957031
5972.397977	0.778590	8.564487	0.154397
5973.380877	0.568584	-114.648437	409.863281
5973.382879	0.774569	-114.648437	409.863281
5973.384876	0.781714	-114.648437	409.863281
5973.386878	0.779747	8.577223	0.126895
5974.488959	0.435040	-279.687500	-28.125000
5974.490960	0.713830	-279.687500	-28.125000
5974.492961	0.782914	-279.687500	-28.125000
5974.494959	0.780307	8.583382	0.154024
5975.471539	0.592092	-110.742187	411.523437
5975.473537	0.780219	-110.742187	411.523437
5975.475536	0.782865	-110.742187	411.523437
5975.477538	0.780958	8.590533	0.453773
5976.588131	0.506713	-276.660156	-30.566406
5976.590133	0.753903	-276.660156	-30.566406
5976.592131	0.756108	-276.660156	-30.566406
5976.594132	0.779844	8.578286	0.148759
5977.542159	0.300605	-112.695312	419.140625
5977.544164	0.599603	-112.695312	419.140625
5977.546166	0.779853	-112.695312	419.140625
5977.548167	0.781220	8.593422	0.135541
5978.686214	0.782322	-278.906250	-32.519531
5978.688218	0.780083	8.580909	0.158522
5979.635183	0.528471	-107.812500	430.468750
5979.637187	0.762793	-107.812500	430.468750
5979.639184	0.782197	-107.812500	430.468750
5979.641187	0.779959	8.579544	0.121469
5980.771212	0.513536	-275.195312	-33.105469
5980.773212	0.756838	-275.195312	-33.105469
5980.775213	0.781990	-275.195312	-33.105469
5980.777213	0.779660	8.576265	0.148863
5981.726147	0.369857	-112.695312	429.394531
5981.728153	0.663783	-112.695312	429.394531
5981.730152	0.670014	-112.695312	429.394531
5981.732155	0.781814	8.599954	0.123692
5982.860169	0.512756	-274.121094	-32.617187
5982.862174	0.756842	-274.121094	-32.617187
5982.864171	0.782579	-274.121094	-32.617187
5982.866171	0.780330	8.583630	0.149381
5983.814227	0.541863	-106.250000	434.960937
5983.816226	0.767067	-106.250000	434.960937
5983.818228	0.781561	-106.250000	434.960937
5983.820228	0.779485	8.574333	0.125539
5984.950284	0.457185	-274.023437	-30.175781
5984.952288	0.727962	-274.023437	-30.175781
5984.956288	0.780002	-274.023437	-30.175781
5984.958287	0.778363	8.561988	0.159135
5985.906297	0.319266	-107.519531	428.906250
5985.910298	0.782330	-107.519531	428.906250
5985.912298	0.782012	-107.519531	428.906250
5985.914300	0.780156	8.581716	0.118148
5987.036406	0.491706	-273.925781	-28.417969
5987.038407	0.747244	-273.925781	-28.417969
5987.040407	0.782713	-273.925781	-28.417969
5987.042408	0.780469	8.585163	0.149037
5988.000455	0.559496	-112.695312	417.675781
5988.002458	0.772175	-112.695312	417.675781
5988.004458	0.781482	-112.695312	417.675781
5988.006462	0.779353	8.572888	0.287260
5989.122564	0.606898	-277.050781	-28.417969
5989.124569	0.781012	-277.050781	-28.417969
5989.126570	0.781721	8.598926	0.157319
5990.099162	0.411632	-113.574219	415.136719
5990.101163	0.697568	-113.574219	415.136719
5990.103163	0.784767	-113.574219	415.136719
5990.105163	0.782199	8.604190	0.111257
5991.199228	0.378066	-271.972656	-28.417969
5991.201228	0.670700	-271.972656	-28.417969
5991.203228	0.783739	-271.972656	-28.417969
5991.205229	0.781339	8.594734	0.160538
5992.197273	0.478944	-125.195312	414.941406
5992.199276	0.740369	-125.195312	414.941406
5992.201274	0.782267	-125.195312	414.941406
5992.203277	0.779875	8.578622	0.122235
5993.283297	0.639288	-266.503906	-34.179687
5993.285301	0.782866	-266.503906	-34.179687
5993.287299	0.781295	8.594246	0.163844
5994.295323	0.610882	-135.253906	417.773437
5994.299323	0.781394	-135.253906	417.773437
5994.301322	0.779420	8.573624	0.128860
5995.373856	0.573853	-253.710937	-40.332031
5995.375860	0.775606	-253.710937	-40.332031
5995.377861	0.781449	-253.710937	-40.332031
5995.379857	0.779412	8.573536	0.385214
5996.372765	0.264893	-122.753906	447.558594
5996.374766	0.565535	-122.753906	447.558594
5996.378764	0.782520	-122.753906	447.558594
5996.380767	0.780525	-122.753906	447.558594
5996.382766	0.780462	8.585083	0.129391
5997.476847	0.603549	-248.339844	-41.210937
5997.478844	0.780702	-248.339844	-41.210937
5997.480845	0.781794	8.599732	0.143075
5998.452916	0.633740	-115.429687	458.203125
5998.454918	0.782591	-115.429687	458.203125
5998.456919	0.781204	8.593246	0.125262
5999.580955	0.776856	-259.570312	-35.058594
5999.582957	0.781806	-259.570312	-35.058594
5999.584957	0.779785	8.577639	0.414533
6000.530976	0.307122	-110.742187	441.308594
6000.532978	0.605929	-110.742187	441.308594
6000.534979	0.781082	-110.742187	441.308594
6000.536977	0.781603	8.597632	0.122610
6001.667071	0.455851	-271.875000	-28.125000
6001.669073	0.727198	-271.875000	-28.125000
6001.671073	0.782648	-271.875000	-28.125000
6001.673073	0.780096	8.581059	0.145662
6002.629132	0.382558	-106.152344	425.097656
6002.631136	0.674603	-106.152344	425.097656
6002.633134	0.784501	-106.152344	425.097656
6002.635136	0.782017	8.602187	0.118917
6003.745231	1.122952	-278.515625	-27.441406
6003.747236	0.722225	-278.515625	-27.441406
6003.749233	0.782682	-278.515625	-27.441406
6003.751233	0.780085	8.580935	0.152768
6004.736205	0.700813	-106.445312	431.347656
6004.738205	0.705065	-106.445312	431.347656
6004.742204	0.778857	8.567429	0.113525
6005.824279	0.571083	-263.378906	-28.515625
6005.826283	0.775513	-263.378906	-28.515625
6005.828282	0.782106	-263.378906	-28.515625
6005.830281	0.780040	8.580439	0.373673
6006.830340	0.417345	-133.496094	415.722656
6006.832341	0.701454	-133.496094	415.722656
6006.834342	0.783147	-133.496094	415.722656
6006.836344	0.780580	8.586376	0.121418
6007.912394	0.763054	-257.519531	-37.792969
6007.914396	0.782059	-257.519531	-37.792969
6007.916396	0.779795	8.577744	0.159602
6008.917363	0.357353	-124.609375	439.941406
6008.919365	0.652855	-124.609375	439.941406
6008.921366	0.784002	-124.609375	439.941406
6008.923366	0.781969	8.601655	0.125471
6010.009470	0.510682	-246.972656	-41.015625
6010.011472	0.756189	-246.972656	-41.015625
6010.015471	0.780795	-246.972656	-41.015625
6010.017472	0.779248	8.571728	0.138502
6010.999543	0.642314	-129.296875	441.601562
6011.001545	0.782958	-129.296875	441.601562
6011.003546	0.781212	8.593333	0.122095
6012.108112	0.579635	-253.710937	-42.480469
6012.110114	0.776830	-253.710937	-42.480469
6012.112113	0.781540	-253.710937	-42.480469
6012.114112	0.779544	8.574980	0.417666
6013.084111	0.783939	-112.304687	462.304687
6013.086115	0.781491	8.596400	0.118927
6014.206182	0.564750	-261.230469	-39.160156
6014.208184	0.773725	-261.230469	-39.160156
6014.210186	0.781679	-261.230469	-39.160156
6014.212184	0.779610	8.575706	0.329185
6015.167179	0.561504	-121.777344	440.039062
6015.169181	0.773006	-121.777344	440.039062
6015.171183	0.781870	-121.777344	440.039062
6015.173182	0.779801	8.577816	0.117082
6016.297220	0.644520	-264.257812	-33.593750
6016.301220	0.781070	-264.257812	-33.593750
6016.303222	0.779229	8.571515	0.142635
6017.257255	0.782682	-106.250000	450.097656
6017.259256	0.780113	8.581245	0.118734
6018.385297	0.281733	-267.187500	-31.250000
6018.387300	0.581747	-267.187500	-31.250000
6018.389299	0.777872	-267.187500	-31.250000
6018.391299	0.782313	-267.187500	-31.250000
6018.393305	0.780330	8.583630	0.147265
6019.343356	0.378854	-105.175781	445.996094
6019.345356	0.671357	-105.175781	445.996094
6019.347358	0.783772	-105.175781	445.996094
6019.349359	0.781383	8.595213	0.112285
6020.475404	0.379436	-266.601562	-29.687500
6020.477406	0.671894	-266.601562	-29.687500
6020.479406	0.784141	-266.601562	-29.687500
6020.481406	0.781679	8.598465	0.146445
6021.435453	0.539741	-105.371094	445.410156
6021.437456	0.766785	-105.371094	445.410156
6021.439456	0.782102	-105.371094	445.410156
6021.441457	0.779884	8.578729	0.186713
6022.565477	0.470996	-267.480469	-29.785156
6022.567479	0.736438	-267.480469	-29.785156
6022.569481	0.783193	-267.480469	-29.785156
6022.573477	0.779364	8.573004	0.145496
6023.521554	0.421925	-115.722656	434.277344
6023.523555	0.704809	-115.722656	434.277344
6023.525555	0.783387	-115.722656	434.277344
6023.527555	0.780799	8.588787	0.114529
6024.660516	0.782503	-269.238281	-31.933594
6024.662518	0.780174	-269.238281	-31.933594
6024.664518	0.778615	8.564762	0.142933
6025.613081	0.422927	-110.839844	446.777344
6025.615084	0.705487	-110.839844	446.777344
6025.617082	0.783077	-110.839844	446.777344
6025.619083	0.780419	8.584614	0.114253
6026.743163	0.281818	-265.917969	-33.007812
6026.745164	0.581756	-265.917969	-33.007812
6026.747166	0.779074	-265.917969	-33.007812
6026.749165	0.783739	-265.917969	-33.007812
6026.751165	0.781873	8.600601	0.141343
6027.703191	0.440780	-106.835937	459.472656
6027.705190	0.717745	-106.835937	459.472656
6027.707191	0.783053	-106.835937	459.472656
6027.709192	0.780570	8.586270	0.118246
6028.833254	0.603320	-257.812500	-36.035156
6028.835252	0.780742	-257.812500	-36.035156
6028.837252	0.781810	8.599910	0.141781
6029.797297	0.445415	-117.773437	455.761719
6029.799300	0.720809	-117.773437	455.761719
6029.801298	0.783153	-117.773437	455.761719
6029.803298	0.780630	8.586935	0.115027
6030.917354	0.416161	-253.710937	-41.210937
6030.919356	0.700886	-253.710937	-41.210937
6030.921357	0.784170	-253.710937	-41.210937
6030.923357	0.781570	8.597269	0.141771
6031.893920	0.366098	-125.585937	450.585937
6031.895920	0.660518	-125.585937	450.585937
6031.897920	0.783621	-125.585937	450.585937
6031.899922	0.781352	8.594875	0.115301
6032.996489	0.322946	-251.171875	-41.503906
6032.998490	0.621209	-251.171875	-41.503906
6033.000490	0.782765	-251.171875	-41.503906
6033.002490	0.782207	8.604279	0.142336
6033.991068	0.281485	-123.925781	449.511719
6033.993069	0.581544	-123.925781	449.511719
6033.995068	0.777583	-123.925781	449.511719
6033.997068	0.778632	-123.925781	449.511719
6033.999068	0.780090	8.580988	0.122049
6035.079094	0.287293	-249.218750	-36.230469
6035.081096	0.587062	-249.218750	-36.230469
6035.083097	0.778641	-249.218750	-36.230469
6035.085098	0.782037	-249.218750	-36.230469
6035.087101	0.779987	8.579854	0.137529
6036.091138	0.776109	-127.734375	432.421875
6036.093141	0.781585	-127.734375	432.421875
6036.095139	0.779478	8.574262	0.114953
6037.171692	0.729178	-260.253906	-30.468750
6037.173694	0.783230	-260.253906	-30.468750
6037.175694	0.780870	8.589567	0.135771
6038.174271	0.540481	-118.359375	428.808594
6038.176272	0.767041	-118.359375	428.808594
6038.178272	0.782154	-118.359375	428.808594
6038.180273	0.780039	8.580430	0.112892
6039.264837	0.466122	-268.457031	-25.292969
6039.266839	0.733724	-268.457031	-25.292969
6039.268839	0.783240	-268.457031	-25.292969
6039.270839	0.780852	8.589373	0.139455
6040.252887	0.450449	-110.839844	426.269531
6040.254889	0.724054	-110.839844	426.269531
6040.256887	0.783178	-110.839844	426.269531
6040.258888	0.780734	8.588078	0.107954
6041.365910	2.301711	-271.777344	-24.414062
6041.367911	0.757921	-271.777344	-24.414062
6041.369911	0.782712	-271.777344	-24.414062
6041.371912	0.780547	8.586022	0.139724
6042.335929	0.745542	-108.691406	432.910156
6042.337932	0.782339	-108.691406	432.910156
6042.339931	0.780032	8.580351	0.107371
6043.462910	0.566040	-270.703125	-28.417969
6043.464912	0.774073	-270.703125	-28.417969
6043.466911	0.781838	-270.703125	-28.417969
6043.468912	0.779689	8.576584	0.339362
6044.422963	0.777548	-98.730469	466.113281
6044.424965	0.781686	-98.730469	466.113281
6044.426964	0.779704	8.576744	0.400338
6045.550978	0.512381	-259.863281	-33.203125
6045.552979	0.756651	-259.863281	-33.203125
6045.554979	0.782512	-259.863281	-33.203125
6045.558980	0.778811	8.566924	0.137645
6046.517011	0.573010	-117.871094	458.593750
6046.519013	0.776194	-117.871094	458.593750
6046.521014	0.782397	-117.871094	458.593750
6046.523014	0.780341	8.583754	0.112897
6047.635574	0.692583	-254.785156	-39.843750
6047.637576	0.784051	-254.785156	-39.843750
6047.639578	0.781488	8.596365	0.134726
6048.616151	0.774823	-115.039062	468.261719
6048.618151	0.782266	-115.039062	468.261719
6048.622150	0.778901	8.567907	0.319130
6049.716211	0.453910	-248.046875	-39.648437
6049.718215	0.726290	-248.046875	-39.648437
6049.720213	0.783001	-248.046875	-39.648437
6049.722213	0.780504	8.585544	0.130153
6050.712269	0.636766	-114.550781	466.308594
6050.714267	0.783540	-114.550781	466.308594
6050.716268	0.782084	8.602922	0.113114
6051.798297	0.496466	-246.875000	-34.277344
6051.800299	0.749699	-246.875000	-34.277344
6051.802299	0.782926	-246.875000	-34.277344
6051.804298	0.780712	8.587831	0.134066
6052.804367	0.344110	-120.019531	448.730469
6052.806370	0.640929	-120.019531	448.730469
6052.808370	0.784020	-120.019531	448.730469
6052.810369	0.782400	8.606397	0.113313
6053.886441	0.376977	-256.054687	-32.812500
6053.888444	0.670037	-256.054687	-32.812500
6053.890444	0.784529	-256.054687	-32.812500
6053.892443	0.782069	8.602763	0.132275
6054.897008	0.358535	-122.949219	439.355469
6054.899010	0.653963	-122.949219	439.355469
6054.903009	0.782049	-122.949219	439.355469
6054.905017	0.780227	8.582495	0.111364
6055.973588	0.485541	-258.300781	-28.906250
6055.975596	0.744034	-258.300781	-28.906250
6055.977595	0.782537	-258.300781	-28.906250
6055.979596	0.780222	8.582442	0.133636
6056.985640	0.682096	-124.121094	431.542969
6056.987641	0.783669	-124.121094	431.542969
6056.989642	0.781133	8.592464	0.109602
6058.066607	0.631637	-265.625000	-28.027344
6058.068610	0.782437	-265.625000	-28.027344
6058.070610	0.781227	8.593493	0.136968
6059.073127	0.618311	-107.031250	449.511719
6059.075129	0.781765	-107.031250	449.511719
6059.077129	0.781385	8.595239	0.108312
6060.155169	0.344818	-264.355469	-26.464844
6060.157169	0.641653	-264.355469	-26.464844
6060.159170	0.783795	-264.355469	-26.464844
6060.161170	0.782039	8.602427	0.139353
6061.163252	0.642392	-107.617187	450.488281
6061.165253	0.783412	-107.617187	450.488281
6061.167253	0.781759	8.599351	0.107958
6062.231270	0.489164	-259.765625	-25.390625
6062.233271	0.745993	-259.765625	-25.390625
6062.235272	0.782659	-259.765625	-25.390625
6062.237271	0.780352	8.583869	0.140210
6063.255372	0.272269	-126.074219	427.929687
6063.257373	0.572725	-126.074219	427.929687
6063.259374	0.776146	-126.074219	427.929687
6063.261372	0.782474	-126.074219	427.929687
6063.263373	0.780508	8.585588	0.124110
6064.337442	0.682967	-263.867187	-27.929687
6064.339446	0.784266	-263.867187	-27.929687
6064.341445	0.781669	8.598358	0.135252
6065.340005	0.546611	-128.515625	430.078125
6065.342004	0.769117	-128.515625	430.078125
6065.344007	0.782307	-128.515625	430.078125
6065.346008	0.780148	8.581626	0.226612
6066.424005	0.560160	-254.687500	-27.929687
6066.426007	0.772857	-254.687500	-27.929687
6066.428008	0.782073	-254.687500	-27.929687
6066.430008	0.780006	8.580067	0.305859
6067.434073	0.782485	-112.011719	457.910156
6067.436077	0.781432	-112.011719	457.910156
6067.438076	0.779660	8.576256	0.112982
6068.516110	0.776909	-253.808594	-32.714844
6068.518113	0.782015	-253.808594	-32.714844
6068.520112	0.780014	8.580155	0.388859
6069.522684	0.751473	-123.437500	447.949219
6069.524685	0.783266	-123.437500	447.949219
6069.526686	0.781107	8.592182	0.109932
6070.605268	0.293784	-247.949219	-34.863281
6070.607283	0.593416	-247.949219	-34.863281
6070.609281	0.782213	-247.949219	-34.863281
6070.611282	0.784656	-247.949219	-34.863281
6070.615281	0.781513	8.596648	0.131572
6071.605315	0.312108	-113.085937	470.214844
6071.607326	0.610895	-113.085937	470.214844
6071.609331	0.782583	-113.085937	470.214844
6071.611335	0.782861	8.611465	0.110722
6072.701398	0.524888	-246.679687	-36.914062
6072.703402	0.761732	-246.679687	-36.914062
6072.705401	0.782499	-246.679687	-36.914062
6072.707401	0.780380	8.584179	0.132866
6073.691439	0.712849	-107.421875	483.691406
6073.693438	0.783711	-107.421875	483.691406
6073.695441	0.781111	8.592217	0.108094
6074.797528	0.598229	-249.121094	-36.230469
6074.801527	0.781878	-249.121094	-36.230469
6074.803529	0.779989	-249.121094	-36.230469
6074.805527	0.778642	8.565063	0.134295
6075.771610	0.486159	-105.761719	481.933594
6075.773613	0.744414	-105.761719	481.933594
6075.775612	0.782723	-105.761719	481.933594
6075.777619	0.780540	8.585942	0.106799
6076.895678	0.369095	-260.058594	-33.203125
6076.897679	0.663423	-260.058594	-33.203125
6076.899681	0.785181	-260.058594	-33.203125
6076.901681	0.782831	8.611137	0.128103
6077.854196	0.297584	-103.515625	468.945312
6077.856202	0.596999	-103.515625	468.945312
6077.858207	0.779761	-103.515625	468.945312
6077.860209	0.781432	-103.515625	468.945312
6077.862215	0.779487	8.574360	0.107377
6078.988271	0.528058	-265.136719	-26.074219
6078.990269	0.762769	-265.136719	-26.074219
6078.992271	0.782284	-265.136719	-26.074219
6078.994272	0.780103	8.581130	0.146992
6079.946323	0.688198	-95.019531	464.062500
6079.948326	0.784052	-95.019531	464.062500
6079.950325	0.781482	8.596302	0.102375
6081.072402	0.262780	-271.679687	-24.023437
6081.074405	0.563895	-271.679687	-24.023437
6081.076404	0.774247	-271.679687	-24.023437
6081.080404	0.780605	-271.679687	-24.023437
6081.082404	0.779200	8.571205	0.140818
6082.038434	0.554891	-100.292969	446.289062
6082.040435	0.771532	-100.292969	446.289062
6082.042434	0.782174	-100.292969	446.289062
6082.044435	0.780170	8.581875	0.238905
6083.155012	0.465581	-269.726562	-21.582031
6083.157015	0.733267	-269.726562	-21.582031
6083.161012	0.780565	-269.726562	-21.582031
6083.163014	0.779088	8.569973	0.147219
6084.139073	0.465401	-98.925781	449.316406
6084.141074	0.733105	-98.925781	449.316406
6084.143076	0.782874	-98.925781	449.316406
6084.145074	0.780428	8.584710	0.093601
6085.237129	0.438058	-265.429687	-22.851562
6085.239131	0.716015	-265.429687	-22.851562
6085.241134	0.783134	-265.429687	-22.851562
6085.243132	0.780597	8.586572	0.142763
6086.239143	0.762839	-105.566406	454.296875
6086.241148	0.783355	-105.566406	454.296875
6086.243147	0.781279	8.594069	0.106993
6087.321191	0.471943	-259.960937	-26.855469
6087.325190	0.783018	-259.960937	-26.855469
6087.327192	0.780685	-259.960937	-26.855469
6087.329192	0.779074	8.569813	0.137557
6088.329247	0.460892	-120.312500	448.339844
6088.331249	0.730790	-120.312500	448.339844
6088.333251	0.783743	-120.312500	448.339844
6088.335251	0.783572	8.619291	0.109300
6089.411767	0.774564	-257.812500	-32.421875
6089.413767	0.782462	-257.812500	-32.421875
6089.415768	0.780393	8.584320	0.333601
6090.415771	0.479493	-123.144531	451.269531
6090.417775	0.741020	-123.144531	451.269531
6090.419772	0.782986	-123.144531	451.269531
6090.421773	0.780712	8.587831	0.105971
6091.503799	0.634689	-249.218750	-34.667969
6091.505799	0.783024	-249.218750	-34.667969
6091.507798	0.781711	8.598820	0.127698
6092.499851	0.514520	-112.792969	474.707031
6092.503851	0.782719	-112.792969	474.707031
6092.505856	0.780597	-112.792969	474.707031
6092.507853	0.779121	8.570327	0.105345
6093.599891	0.401801	-250.195312	-38.378906
6093.601893	0.690222	-250.195312	-38.378906
6093.603894	0.784931	-250.195312	-38.378906
6093.605893	0.782340	8.605742	0.125207
6094.584434	0.319538	-112.695312	478.710937
6094.588433	0.782360	-112.695312	478.710937
6094.590433	0.782043	-112.695312	478.710937
6094.592434	0.780234	8.582575	0.104429
6095.692444	0.478139	-250.292969	-38.769531
6095.694446	0.740340	-250.292969	-38.769531
6095.696447	0.782919	-250.292969	-38.769531
6095.698446	0.780530	8.585827	0.132585
6096.672975	0.485782	-121.484375	464.550781
6096.674977	0.744353	-121.484375	464.550781
6096.676978	0.782915	-121.484375	464.550781
6096.678979	0.780619	8.586811	0.101622
6097.782958	0.406165	-249.804687	-38.085937
6097.784959	0.693454	-249.804687	-38.085937
6097.786961	0.784170	-249.804687	-38.085937
6097.788961	0.781539	8.596931	0.132497
6098.762989	0.642158	-105.175781	489.062500
6098.766990	0.781765	-105.175781	489.062500
6098.768992	0.779950	8.579447	0.706825
6099.875083	0.752535	-248.828125	-36.132812
6099.879083	0.780297	-248.828125	-36.132812
6099.881084	0.778770	8.566472	0.129520
6100.851130	0.445922	-109.863281	482.617187
6100.853133	0.721287	-109.863281	482.617187
6100.855135	0.783142	-109.863281	482.617187
6100.857133	0.780637	8.587006	0.104732
